comment daily death counts in affected countries
comment preceding _smooth mobility from Apple by 21d
comment Julian day 61/68:Sundays
array data
  typeOfArray float
 dimension 343 41
head
	"Days_from_60"
	"Belgium_fatal"
	"France_fatal"
	"Germany_fatal"
	"Iran_fatal"
	"Ireland_fatal"
	"Italy_fatal"
	"Netherlands_fatal"
	"Portugal_fatal"
	"Spain_fatal"
	"Sweden_fatal"
	"Switzerland_fatal"
	"United Kingdom_fatal"
	"Georgia_fatal"
	"Indiana_fatal"
	"Louisiana_fatal"
	"Massachusetts_fatal"
	"Michigan_fatal"
	"New Jersey_fatal"
	"New York_fatal"
	"Washington_fatal"
	"Belgium_mobil"
	"France_mobil"
	"Germany_mobil"
	"Iran_mobil"
	"Ireland_mobil"
	"Italy_mobil"
	"Netherlands_mobil"
	"Portugal_mobil"
	"Spain_mobil"
	"Sweden_mobil"
	"Switzerland_mobil"
	"United Kingdom_mobil"
	"Georgia_mobil"
	"Indiana_mobil"
	"Louisiana_mobil"
	"Massachusetts_mobil"
	"Michigan_mobil"
	"New Jersey_mobil"
	"New York_mobil"
	"Washington_mobil"
data
	0	0.000	0.007	0.000	0.59	0.000	0.288	0.000	0.000	0.007	0.000	0.004	0.000	0.000	0.000	0.000	0.000	0.000	0.000	0.000	0.238	96.044	95.328	92.171	-1.000	94.732	96.250	98.266	93.041	91.685	99.290	98.201	96.647	94.426	96.082	88.306	96.333	96.443	96.221	96.566	99.132
	1	0.000	0.010	0.000	0.818	0.000	0.394	0.002	0.000	0.011	0.000	0.012	0.001	0.000	0.000	0.000	0.000	0.000	0.000	0.000	0.291	96.793	95.471	92.616	-1.000	95.085	97.501	98.393	93.245	91.909	99.229	98.042	96.763	95.229	96.210	89.771	96.868	97.105	96.749	97.187	99.014
	2	0.000	0.018	0.000	0.943	0.000	0.513	0.006	0.000	0.020	0.000	0.021	0.003	0.000	0.000	0.000	0.000	0.000	0.000	0.000	0.333	97.782	95.936	93.675	-1.000	95.343	99.039	99.431	93.720	92.435	99.284	98.126	96.878	97.152	96.641	91.470	97.856	97.547	97.685	98.145	98.844
	3	0.000	0.028	0.000	1.488	0.000	0.685	0.015	0.000	0.036	0.000	0.025	0.005	0.000	0.000	0.000	0.000	0.000	0.000	0.000	0.386	98.565	96.784	94.726	-1.000	96.154	101.128	99.752	95.658	93.544	99.232	98.369	97.291	100.448	98.369	93.642	99.433	99.272	99.493	100.229	99.813
	4	0.000	0.040	0.001	2.233	0.000	0.930	0.023	0.000	0.062	0.000	0.033	0.007	0.000	0.000	0.000	0.000	0.000	0.000	0.000	0.407	99.360	97.507	95.597	-1.000	96.344	102.955	100.322	97.390	94.579	99.514	99.157	96.968	103.991	99.540	94.609	99.612	100.254	99.786	100.320	99.767
	5	0.000	0.051	0.002	3.137	0.000	1.278	0.033	0.000	0.094	0.003	0.045	0.011	0.000	0.000	0.000	0.000	0.000	0.006	0.000	0.402	100.296	98.315	96.709	-1.000	98.306	104.670	101.749	98.377	96.036	99.794	99.435	97.947	104.092	100.612	94.434	100.708	101.196	100.660	101.285	100.290
	6	0.008	0.069	0.004	4.032	0.008	1.659	0.040	0.000	0.134	0.009	0.058	0.017	0.000	0.000	0.000	0.000	0.000	0.017	0.001	0.380	100.709	99.522	100.042	-1.000	100.036	105.682	102.040	99.085	97.668	100.030	100.414	99.370	104.624	101.501	95.562	101.506	101.582	102.055	102.363	101.361
	7	0.023	0.089	0.005	5.015	0.025	2.140	0.048	0.000	0.171	0.017	0.070	0.023	0.004	0.000	0.000	0.000	0.003	0.029	0.004	0.423	101.706	100.729	102.196	-1.000	102.082	106.506	102.697	99.878	99.860	100.321	101.155	100.773	104.754	101.809	96.433	102.203	101.558	102.541	102.700	102.108
	8	0.038	0.114	0.007	6.026	0.042	2.662	0.060	0.000	0.256	0.026	0.099	0.026	0.011	0.000	0.000	0.000	0.010	0.029	0.007	0.486	102.718	101.340	103.877	-1.000	103.876	107.490	103.510	100.540	101.774	100.826	101.550	102.324	104.514	102.481	97.216	102.952	101.397	102.844	103.277	102.565
	9	0.041	0.141	0.010	7.006	0.050	3.187	0.081	0.000	0.415	0.043	0.157	0.040	0.018	0.000	0.008	0.000	0.017	0.029	0.012	0.586	103.358	101.957	105.012	-1.000	105.559	108.151	103.488	101.075	103.469	101.227	101.798	103.562	103.077	103.499	97.026	103.302	101.484	102.689	103.236	102.666
	10	0.046	0.171	0.015	7.977	0.067	3.761	0.119	0.000	0.684	0.066	0.231	0.071	0.018	0.000	0.032	0.000	0.017	0.035	0.030	0.613	103.361	102.319	106.228	-1.000	106.632	107.837	103.026	100.540	104.683	101.236	102.021	104.606	100.837	103.533	99.133	102.501	101.145	101.940	102.314	101.801
	11	0.054	0.197	0.019	8.914	0.083	4.388	0.161	0.000	0.935	0.092	0.248	0.125	0.018	0.006	0.072	0.000	0.017	0.046	0.070	0.629	101.800	103.037	107.211	-1.000	107.050	107.232	102.157	100.969	106.111	101.076	102.322	105.493	100.667	103.876	103.036	102.672	102.319	102.668	102.643	101.901
	12	0.072	0.239	0.026	9.843	0.083	5.110	0.240	0.003	1.272	0.123	0.297	0.177	0.018	0.023	0.112	0.000	0.017	0.064	0.134	0.708	101.232	103.543	107.365	-1.000	106.369	105.375	100.964	103.232	106.883	101.177	101.843	105.218	100.570	103.411	107.484	101.828	102.386	102.538	101.808	100.958
	13	0.105	0.273	0.035	10.874	0.075	5.823	0.361	0.012	1.670	0.178	0.396	0.241	0.025	0.046	0.160	0.000	0.021	0.092	0.236	0.872	101.451	103.289	105.343	-1.000	104.790	103.206	100.191	106.021	107.358	100.870	101.263	103.869	99.462	102.499	109.509	101.327	102.139	101.389	100.774	99.582
	14	0.154	0.296	0.047	11.838	0.067	6.544	0.532	0.028	2.216	0.270	0.549	0.328	0.062	0.057	0.240	0.000	0.024	0.173	0.380	1.014	101.015	103.023	104.401	-1.000	102.908	99.676	99.020	106.144	106.705	100.483	100.677	102.491	99.778	102.311	112.089	100.898	102.266	100.752	100.222	98.826
	15	0.236	0.455	0.068	12.719	0.067	7.429	0.717	0.049	2.741	0.376	0.681	0.446	0.135	0.063	0.368	0.006	0.028	0.295	0.599	1.141	100.489	103.189	103.507	-1.000	101.039	95.009	98.097	106.215	106.317	99.945	100.408	100.913	100.257	101.309	113.013	100.180	101.498	100.407	99.536	98.421
	16	0.428	0.759	0.097	13.373	0.075	8.588	0.955	0.093	3.466	0.488	0.916	0.565	0.229	0.080	0.536	0.017	0.038	0.433	0.894	1.220	100.111	103.090	103.209	-1.000	99.697	90.021	97.463	105.849	106.683	99.658	100.189	99.694	101.981	100.896	113.914	100.293	101.289	100.054	98.826	98.558
	17	0.679	1.074	0.124	13.731	0.067	10.013	1.249	0.155	4.314	0.605	1.213	0.667	0.320	0.114	0.672	0.050	0.087	0.572	1.246	1.368	99.425	103.009	102.222	-1.000	98.174	84.601	97.302	104.826	106.806	99.080	98.921	98.882	103.161	100.869	110.718	100.624	101.113	99.865	98.929	98.859
	18	0.899	1.335	0.148	13.776	0.083	11.302	1.574	0.232	5.557	0.766	1.643	0.778	0.400	0.149	0.848	0.117	0.171	0.774	1.640	1.506	98.491	102.311	101.392	-1.000	97.422	79.043	96.795	102.468	106.239	98.462	96.821	98.384	105.217	101.224	106.358	100.853	100.608	99.639	98.953	99.871
	19	1.076	1.677	0.180	13.649	0.141	12.222	1.937	0.328	6.992	0.978	1.960	0.957	0.462	0.194	1.136	0.216	0.300	1.075	2.178	1.569	97.851	101.090	101.533	-1.000	98.052	74.371	96.566	98.804	106.149	97.711	95.915	98.220	106.237	101.816	102.414	100.988	100.290	99.267	98.954	100.215
	20	1.419	2.136	0.231	13.404	0.208	13.168	2.381	0.467	8.769	1.254	2.175	1.289	0.535	0.251	1.656	0.305	0.498	1.514	2.915	1.638	96.413	99.769	100.815	-1.000	98.758	71.541	96.125	94.575	105.486	97.377	94.617	97.708	106.989	102.330	100.226	100.917	100.376	99.647	99.215	99.691
	21	1.924	2.710	0.297	13.201	0.333	14.107	2.961	0.628	10.765	1.549	2.435	1.737	0.633	0.337	2.200	0.427	0.791	2.057	3.869	1.749	95.230	98.747	99.974	-1.000	99.911	70.165	95.837	93.355	105.179	96.841	93.511	97.554	106.488	102.966	97.794	101.579	100.236	99.882	99.509	98.738
	22	2.506	3.227	0.379	13.095	0.541	14.908	3.653	0.822	13.111	1.896	3.000	2.266	0.727	0.434	2.952	0.633	1.185	2.686	5.105	1.902	94.592	97.669	99.334	-1.000	100.193	69.111	95.478	92.275	105.006	96.217	92.615	97.370	105.509	104.433	96.050	101.161	101.181	100.202	99.954	97.677
	23	3.044	3.666	0.473	13.062	0.857	15.692	4.376	1.057	15.133	2.261	3.479	2.906	0.818	0.577	3.784	0.894	1.638	3.536	6.691	2.092	94.371	96.775	98.373	-1.000	100.006	67.719	95.090	91.636	104.237	95.607	91.677	97.142	104.352	105.663	95.990	100.688	101.608	100.845	100.626	95.503
	24	3.669	4.032	0.593	13.033	1.215	16.245	5.166	1.301	17.089	2.668	3.855	3.635	0.920	0.709	4.600	1.094	2.095	4.506	8.573	2.309	94.778	95.634	97.638	-1.000	99.868	65.707	95.004	91.070	103.706	95.514	91.183	96.647	105.073	105.601	97.137	99.349	101.502	100.716	100.071	92.698
	25	4.379	4.506	0.738	13.001	1.648	16.629	5.923	1.555	18.800	3.095	4.214	4.339	0.982	0.766	5.168	1.216	2.555	5.477	10.738	2.568	96.520	94.841	97.131	-1.000	100.533	63.201	95.701	92.054	103.960	95.235	90.598	96.547	104.532	105.870	98.548	98.009	101.904	100.693	99.993	89.905
	26	5.496	5.017	0.894	12.914	2.031	17.084	6.774	1.765	20.207	3.534	4.923	5.098	1.138	0.829	6.040	1.432	3.280	6.598	13.003	2.657	97.024	94.291	96.580	-1.000	100.749	60.895	95.713	92.276	103.303	94.825	90.713	96.005	104.503	105.528	100.102	97.807	102.790	100.786	99.927	88.262
	27	6.831	5.962	1.053	12.902	2.497	17.495	7.600	1.954	21.223	3.979	5.922	6.098	1.385	1.034	7.152	1.982	4.291	8.452	15.527	3.101	96.931	93.585	95.927	-1.000	100.298	57.407	94.829	92.029	102.112	94.436	90.240	95.489	105.213	105.250	101.178	98.065	103.323	100.803	100.044	87.229
	28	8.345	7.287	1.233	12.843	2.988	17.698	8.475	2.136	21.918	4.518	6.756	7.325	1.713	1.354	8.232	2.770	5.375	11.405	18.537	4.026	96.182	92.751	95.120	-1.000	98.645	51.750	93.729	91.294	100.161	93.734	89.506	94.755	105.404	104.725	102.081	96.543	104.497	100.146	99.189	85.928
	29	9.572	8.873	1.422	12.569	3.396	17.717	9.142	2.337	22.475	5.118	7.098	8.814	1.993	1.720	8.968	3.492	6.320	15.079	21.892	4.998	94.958	92.120	93.959	-1.000	96.776	45.770	92.167	89.834	96.959	92.416	88.203	93.608	106.128	103.809	103.505	95.237	103.934	99.031	97.544	83.873
	30	10.812	10.230	1.603	12.349	3.787	17.455	9.807	2.485	22.890	5.729	7.478	10.271	2.189	2.063	9.824	4.130	7.114	19.429	25.200	5.357	90.851	89.962	91.353	-1.000	92.641	39.221	88.371	86.432	90.593	89.645	85.554	91.479	105.683	101.750	103.430	91.740	102.205	96.186	94.298	81.479
	31	11.745	11.811	1.737	12.433	4.245	16.857	10.218	2.621	22.766	6.328	8.002	11.664	2.309	2.394	10.976	4.668	7.843	23.410	28.477	5.664	84.422	86.246	86.837	-1.000	86.710	32.490	82.543	80.495	80.356	85.909	81.410	88.633	102.031	99.459	100.559	86.757	98.907	92.615	89.814	78.224
	32	12.839	12.918	1.861	12.696	4.544	16.196	10.460	2.643	22.265	6.959	8.419	12.858	2.429	2.674	12.184	5.074	8.805	27.356	32.028	5.923	75.965	80.986	81.296	-1.000	79.726	25.771	76.235	71.305	67.284	81.410	76.653	85.420	97.932	93.974	96.614	81.389	94.074	87.597	83.479	73.950
	33	14.348	13.962	1.996	12.890	5.019	15.540	10.546	2.717	21.714	7.602	8.378	14.032	2.778	3.029	13.192	5.779	9.833	30.834	36.360	6.313	69.239	75.509	76.196	-1.000	72.631	20.294	69.722	63.284	55.628	77.299	71.738	82.107	94.864	91.177	92.886	76.385	90.626	83.153	78.224	71.268
	34	16.167	14.890	2.196	12.870	5.560	14.911	10.852	2.798	21.188	8.210	8.233	15.385	3.429	3.440	13.752	6.955	10.726	35.646	40.748	6.166	62.344	69.327	71.171	-1.000	65.128	16.446	62.526	56.251	45.274	73.545	66.809	78.307	90.934	88.359	88.698	70.310	86.061	77.745	72.202	67.920
	35	17.925	15.435	2.406	12.686	6.184	14.292	11.115	2.955	20.620	8.686	8.262	17.011	3.993	3.949	14.688	8.354	11.485	41.014	44.222	5.405	55.286	60.270	65.558	-1.000	57.719	14.575	55.424	48.921	35.515	69.754	60.964	73.059	86.833	84.476	82.870	63.586	79.798	72.104	65.887	63.825
	36	19.790	15.392	2.586	12.497	6.633	13.749	11.025	3.014	19.721	8.930	8.456	18.284	4.036	4.617	15.416	9.587	12.580	45.329	46.199	4.475	46.762	49.940	59.922	-1.000	50.539	13.295	48.378	41.833	26.378	66.447	54.959	67.503	81.978	79.905	76.752	57.717	74.299	66.399	59.630	60.096
	37	22.647	15.759	2.571	12.279	7.050	13.276	10.746	3.036	18.755	9.211	8.320	19.404	4.087	5.394	15.608	11.002	14.047	48.282	47.718	4.190	40.094	40.829	54.725	-1.000	45.390	12.923	42.872	35.471	19.468	64.577	50.093	62.930	77.556	75.663	70.464	52.275	69.486	61.241	54.054	56.845
	38	25.701	15.257	2.497	11.921	7.291	12.894	10.431	3.076	18.016	9.455	8.060	20.036	4.153	5.943	15.416	12.651	15.431	51.563	48.572	3.931	34.685	32.000	49.633	-1.000	40.486	12.714	38.425	29.541	14.288	62.854	45.588	57.757	72.949	70.980	64.042	47.780	65.041	56.031	48.420	53.962
	39	27.423	14.779	2.462	11.472	7.566	12.654	10.179	3.246	17.419	9.515	7.820	20.318	4.131	6.097	15.136	14.288	15.926	53.949	48.962	3.709	31.101	23.856	44.231	-1.000	36.253	12.626	34.603	24.795	11.686	61.656	41.170	51.696	68.225	67.060	56.917	43.673	61.080	50.680	43.153	51.657
	40	28.107	14.255	2.490	11.043	7.740	12.447	9.795	3.363	16.740	9.527	7.763	20.571	4.044	6.057	15.208	15.021	16.306	56.150	48.378	3.492	28.301	19.304	40.204	-1.000	33.938	12.340	32.399	21.836	10.516	60.586	37.470	47.355	64.700	63.532	52.195	40.850	57.900	46.502	39.509	49.435
	41	28.148	13.795	2.439	10.632	8.181	12.380	9.353	3.435	15.819	9.639	7.412	20.637	3.833	6.143	16.456	15.648	16.888	58.097	46.950	3.350	25.669	15.716	37.145	-1.000	31.939	12.125	31.069	19.549	9.960	59.931	35.120	43.499	61.384	60.740	48.244	38.119	54.933	42.830	35.848	47.042
	42	28.128	13.728	2.486	10.219	8.598	12.369	9.130	3.407	15.022	9.759	7.127	20.361	3.564	6.434	17.744	16.270	17.338	61.113	44.991	3.239	23.787	14.823	34.848	-1.000	30.564	11.934	30.217	17.988	9.652	59.753	33.880	39.589	58.680	58.557	45.547	36.426	51.377	40.822	33.621	45.115
	43	28.727	13.913	2.652	9.839	9.214	12.311	9.503	3.401	14.845	9.808	6.929	19.940	3.745	6.583	18.144	17.797	17.380	64.129	43.081	3.228	23.108	14.648	33.159	-1.000	29.486	11.790	29.837	16.779	9.399	59.972	32.948	36.043	56.881	56.933	43.526	34.328	49.161	38.623	31.453	43.003
	44	28.345	13.147	2.782	9.381	9.846	12.124	9.782	3.404	14.484	9.639	6.801	19.741	4.102	6.417	18.280	17.874	17.167	66.665	40.509	3.249	23.067	14.551	32.278	-1.000	28.261	11.533	29.706	16.425	9.322	60.064	32.378	32.466	55.327	55.226	41.801	33.512	46.732	37.610	30.075	40.541
	45	27.121	12.856	2.899	8.842	10.520	11.960	9.922	3.363	13.680	9.487	6.607	19.666	4.400	6.246	18.352	20.417	17.125	67.844	37.715	3.254	23.326	14.523	32.074	-1.000	27.921	11.298	29.700	16.530	9.208	60.288	32.493	29.088	53.958	53.116	40.407	32.585	44.289	36.386	28.917	37.867
	46	26.403	12.682	2.899	8.345	11.452	11.721	9.878	3.258	12.536	9.346	6.310	19.615	4.749	6.257	18.224	23.303	16.651	68.537	35.511	3.281	23.541	14.688	32.732	-1.000	26.380	11.219	29.577	16.611	9.164	60.202	33.434	26.437	53.030	52.083	39.786	31.846	42.003	35.134	27.787	35.754
	47	25.255	12.385	2.886	8.040	12.651	11.540	9.843	3.138	12.116	9.065	6.025	19.231	5.095	6.514	17.536	26.317	16.003	69.005	33.950	3.360	23.234	14.833	32.840	-1.000	23.683	11.257	29.523	16.552	9.181	60.401	33.686	24.228	53.152	51.751	39.541	30.952	40.639	34.927	27.346	34.650
	48	23.967	11.728	2.916	7.863	13.458	11.226	9.837	3.017	11.923	8.609	6.025	19.203	5.316	6.743	16.336	27.933	15.515	67.832	32.873	3.334	23.220	14.861	33.199	-1.000	22.216	11.279	29.739	16.475	9.047	60.631	33.760	22.324	53.678	51.403	39.196	30.630	39.268	35.439	27.571	33.507
	49	22.955	10.561	2.797	7.785	13.367	10.925	9.682	2.946	11.663	8.268	5.844	19.124	5.207	6.771	15.736	31.274	15.954	66.053	31.437	3.270	23.178	14.938	33.884	-1.000	20.902	11.374	30.096	16.474	8.943	60.905	34.322	21.879	53.477	51.058	39.086	30.691	39.463	35.093	27.361	32.894
	50	21.589	9.316	2.605	7.762	12.901	10.575	9.161	2.940	10.835	8.127	5.522	18.698	5.196	6.497	16.584	33.101	16.717	64.510	30.565	3.154	23.225	15.058	34.428	-1.000	19.648	11.445	30.280	16.398	8.866	61.007	34.871	21.630	53.204	50.977	38.978	30.847	39.128	35.300	27.462	32.723
	51	19.888	8.612	2.561	7.758	12.206	10.262	8.740	2.996	10.349	8.055	5.328	18.191	4.800	6.497	17.760	35.815	16.400	62.136	30.365	3.027	23.147	15.214	34.880	-1.000	18.493	11.648	30.466	16.655	8.793	60.707	35.446	21.503	52.848	51.618	38.681	30.379	39.585	34.930	27.186	32.913
	52	18.886	7.935	2.477	7.705	11.616	9.875	8.479	2.996	10.282	7.875	4.965	17.905	4.345	6.691	17.656	35.898	15.672	59.386	30.065	2.964	23.141	15.345	35.008	-1.000	16.432	11.792	30.525	16.759	8.694	60.363	35.886	21.480	51.723	52.890	38.311	29.509	39.964	34.342	26.703	33.266
	53	18.266	7.490	2.420	7.578	10.719	9.498	8.267	2.958	10.558	7.794	4.672	17.296	4.167	7.149	17.264	35.166	16.128	55.781	28.715	2.879	23.387	15.404	35.165	-1.000	15.913	11.892	30.687	16.753	8.685	59.945	36.104	21.541	50.232	53.322	37.788	29.273	40.369	34.711	27.031	33.677
	54	17.712	7.178	2.318	7.405	9.332	9.034	7.852	2.937	10.170	7.866	4.651	16.735	4.131	7.440	16.688	34.261	16.906	52.979	26.570	2.721	24.237	15.600	36.532	-1.000	15.829	12.004	31.352	16.694	8.662	59.916	37.387	21.653	49.377	53.956	37.646	29.743	40.837	34.901	27.261	33.768
	55	17.072	6.872	2.209	7.289	8.180	8.620	7.278	2.924	9.884	7.998	4.626	16.049	4.251	7.794	15.904	34.422	16.885	53.712	24.191	2.568	24.734	15.825	37.580	-1.000	15.867	12.148	31.869	16.947	8.765	61.246	38.272	21.710	48.598	54.587	37.799	30.133	41.203	35.012	27.508	34.191
	56	16.009	6.506	2.106	7.066	8.063	8.174	6.738	2.835	9.584	7.961	4.308	15.599	4.484	8.777	14.736	33.484	16.167	55.336	22.668	2.467	25.425	16.020	38.370	-1.000	16.062	12.416	32.335	17.247	8.924	62.516	38.928	21.764	48.542	55.540	37.936	30.359	41.250	35.311	27.708	34.500
	57	14.630	6.098	1.917	6.808	8.027	7.712	6.576	2.680	9.070	7.852	3.941	15.244	4.647	10.549	13.328	33.362	14.759	56.682	21.423	2.399	26.232	16.208	39.284	-1.000	16.334	12.730	33.018	17.866	9.126	63.892	39.825	21.901	48.238	56.777	38.196	30.329	41.861	35.446	27.636	34.830
	58	13.077	5.639	1.753	6.518	8.092	7.335	6.301	2.433	8.385	7.789	3.586	14.644	4.771	12.154	12.144	32.418	14.490	59.010	19.921	2.309	27.172	16.403	39.919	-1.000	16.548	13.038	33.757	17.591	9.048	65.657	40.397	22.112	48.209	57.044	38.925	30.391	41.392	35.360	27.481	35.414
	59	11.514	5.261	1.658	6.266	7.778	7.166	6.140	2.263	8.004	7.820	3.335	13.890	4.902	12.497	11.800	31.402	14.386	59.623	18.842	2.203	28.062	16.649	40.416	-1.000	16.527	13.438	34.483	16.788	8.892	66.064	40.534	21.871	48.626	57.066	38.979	31.021	40.882	35.509	27.570	36.049
	60	10.026	4.933	1.589	6.078	7.317	7.045	6.009	2.167	7.961	7.855	3.091	13.429	4.825	12.411	11.696	30.692	14.023	59.819	17.925	2.066	28.827	16.823	40.828	-1.000	16.597	13.720	34.884	16.489	9.026	65.320	41.073	21.869	49.580	57.642	39.496	31.418	41.240	35.724	27.769	36.541
	61	9.273	4.688	1.475	5.869	6.989	6.673	6.030	2.090	7.429	7.829	2.633	13.075	4.731	12.177	12.224	30.214	12.636	59.524	17.162	1.997	28.865	16.667	40.209	-1.000	16.267	13.502	34.358	16.422	9.142	64.821	40.769	21.624	48.913	56.531	38.934	31.031	40.249	35.191	27.462	36.471
	62	9.331	4.457	1.372	5.698	6.542	6.345	5.890	1.972	6.839	7.714	2.142	12.632	4.560	12.017	12.784	29.459	11.642	57.444	16.833	2.055	28.517	16.392	39.771	-1.000	15.911	13.238	34.079	16.211	9.305	64.695	41.124	21.273	49.413	56.167	39.435	30.396	39.792	34.397	26.981	36.693
	63	9.908	4.226	1.317	5.624	6.020	6.213	5.594	1.855	6.302	7.611	1.828	12.061	4.367	11.291	12.600	28.521	10.482	54.926	16.832	2.171	28.526	16.727	39.891	-1.000	15.884	13.246	34.048	16.593	9.525	64.403	41.498	21.490	50.258	55.986	39.773	30.648	39.748	34.566	27.234	36.975
	64	10.597	3.988	1.382	5.563	5.853	6.241	5.083	1.765	6.074	7.507	1.622	11.610	4.105	9.703	12.056	27.733	9.994	51.274	16.708	2.298	28.640	17.097	40.156	-1.000	15.803	13.358	34.159	16.577	9.732	63.939	41.943	21.769	50.993	55.813	40.054	31.301	39.324	34.842	27.631	37.392
	65	10.490	3.851	1.345	5.453	5.546	6.019	4.906	1.697	6.051	7.378	1.453	11.043	4.124	8.029	11.152	27.455	9.596	46.652	16.074	2.377	28.801	17.480	40.938	-1.000	15.905	13.428	34.250	17.086	10.202	63.267	42.687	21.949	51.478	56.369	40.498	31.864	39.725	35.440	28.183	37.863
	66	10.454	3.733	1.310	5.328	5.366	5.629	4.558	1.583	5.808	7.292	1.424	10.481	4.131	7.589	10.688	27.394	9.345	44.128	15.588	2.409	28.742	17.841	41.938	-1.000	16.174	13.476	34.279	18.379	10.770	64.175	43.960	22.460	52.468	56.085	41.403	32.304	39.716	36.001	28.637	38.301
	67	10.349	3.541	1.248	5.182	5.199	5.257	4.195	1.456	5.169	7.140	1.399	9.993	3.978	7.554	10.720	27.511	9.004	43.631	14.879	2.414	28.163	18.099	42.741	-1.000	16.379	13.584	34.394	19.382	10.897	66.262	44.801	22.719	53.490	57.421	41.871	31.782	40.418	36.187	28.695	38.682
	68	10.082	3.449	1.227	5.012	5.045	5.185	3.874	1.345	5.068	6.896	1.387	9.770	3.778	7.589	10.144	27.283	8.704	43.174	14.056	2.420	28.545	18.631	44.348	-1.000	17.051	14.167	35.576	20.233	11.048	67.818	46.177	23.333	54.491	59.367	42.807	33.138	41.940	37.494	29.679	39.768
